> ScP at   713.58 seconds at    42.50 degrees for a    500.0 km deep source in the prem model with rayParam    4.047 s/deg.
    0.00    5871.0
    0.03    5856.8
    0.05    5845.0
    0.06    5843.8
    0.07    5839.5
    0.07    5839.3
    0.07    5839.1
    0.07    5838.7
    0.07    5837.9
    0.07    5836.2
    0.07    5835.8
    0.07    5835.4
    0.08    5834.7
    0.08    5833.1
    0.11    5821.0
    0.12    5812.3
    0.15    5798.2
    0.17    5792.5
    0.19    5783.9
    0.20    5779.5
    0.20    5778.7
    0.22    5771.0
    0.22    5767.2
    0.24    5760.6
    0.26    5753.4
    0.30    5736.0
    0.30    5734.3
    0.30    5732.6
    0.31    5730.9
    0.34    5716.0
    0.38    5701.0
    0.39    5696.3
    0.40    5691.6
    0.42    5682.1
    0.46    5666.2
    0.47    5662.4
    0.48    5662.1
    0.48    5661.9
    0.48    5661.3
    0.48    5660.2
    0.48    5660.1
    0.48    5659.5
    0.48    5658.9
    0.49    5657.6
    0.49    5655.1
    0.51    5650.0
    0.56    5629.3
    0.60    5614.7
    0.64    5600.0
    0.65    5595.6
    0.67    5591.1
    0.69    5582.2
    0.74    5564.3
    0.78    5548.3
    0.81    5540.3
    0.83    5532.3
    0.88    5516.2
    0.90    5508.1
    0.92    5500.0
    0.97    5482.3
    1.00    5473.4
    1.02    5464.5
    1.07    5448.4
    1.10    5440.4
    1.12    5432.4
    1.17    5416.2
    1.19    5408.1
    1.22    5400.0
    1.27    5382.3
    1.32    5364.6
    1.42    5332.4
    1.43    5330.7
    1.53    5300.0
    1.63    5268.6
    1.73    5237.0
    1.85    5200.0
    1.91    5181.1
    1.98    5162.2
    2.11    5124.1
    2.11    5123.5
    2.11    5123.0
    2.12    5121.8
    2.12    5120.7
    2.13    5119.5
    2.13    5118.1
    2.14    5116.6
    2.14    5115.2
    2.15    5113.7
    2.16    5110.8
    2.17    5107.9
    2.18    5103.9
    2.19    5100.0
    2.19    5099.8
    2.20    5097.6
    2.21    5095.0
    2.22    5092.5
    2.24    5087.3
    2.26    5082.2
    2.28    5077.0
    2.29    5071.9
    2.31    5066.7
    2.31    5066.1
    2.32    5065.6
    2.32    5064.5
    2.32    5063.4
    2.33    5062.2
    2.34    5060.0
    2.34    5057.8
    2.36    5053.3
    2.38    5048.8
    2.41    5039.8
    2.44    5030.8
    2.50    5015.4
    2.53    5007.7
    2.55    5000.0
    2.61    4984.4
    2.67    4968.7
    2.79    4937.2
    2.86    4918.6
    2.93    4900.0
    3.08    4862.2
    3.23    4824.2
    3.25    4821.2
    3.26    4818.2
    3.28    4812.1
    3.33    4800.0
    3.35    4796.6
    3.36    4793.3
    3.42    4778.2
    3.45    4770.7
    3.49    4763.1
    3.56    4745.9
    3.63    4728.6
    3.74    4702.4
    3.75    4701.2
    3.75    4700.0
    3.88    4671.0
    4.01    4642.0
    4.10    4622.6
    4.20    4600.0
    4.28    4582.0
    4.29    4579.5
    4.30    4576.9
    4.33    4571.8
    4.38    4561.6
    4.47    4541.2
    4.48    4539.5
    4.49    4537.8
    4.58    4518.9
    4.67    4500.0
    4.68    4497.3
    4.69    4494.6
    4.80    4472.8
    4.91    4450.9
    5.13    4407.0
    5.16    4400.0
    5.24    4385.8
    5.31    4371.5
    5.50    4335.8
    5.69    4300.0
    5.95    4252.5
    6.07    4230.9
    6.16    4215.5
    6.24    4200.0
    6.42    4168.9
    6.61    4137.7
    6.62    4136.3
    6.72    4118.2
    6.83    4100.0
    7.06    4063.5
    7.29    4026.8
    7.33    4020.1
    7.37    4013.4
    7.46    4000.0
    7.49    3995.1
    7.52    3990.3
    7.64    3972.1
    7.76    3954.0
    7.78    3951.7
    7.79    3949.4
    7.82    3944.8
    7.90    3933.6
    7.98    3922.4
    8.05    3911.2
    8.13    3900.0
    8.29    3877.5
    8.44    3855.0
    8.77    3809.7
    8.81    3804.9
    8.84    3800.0
    8.96    3784.4
    9.07    3768.8
    9.31    3737.5
    9.60    3700.0
    9.86    3668.3
   10.01    3649.2
   10.17    3630.0
   10.29    3615.0
   10.35    3607.5
   10.42    3600.0
   10.62    3576.8
   10.71    3565.2
   10.82    3553.6
   11.05    3526.8
   11.29    3500.0
   11.36    3492.0
   11.47    3480.0
   12.20    3500.0
   13.04    3524.3
   13.66    3543.2
   14.28    3562.2
   14.86    3581.1
   15.44    3600.0
   15.88    3615.0
   16.31    3630.0
   16.62    3641.0
   17.40    3670.5
   18.18    3700.0
   18.69    3720.7
   19.19    3741.3
   20.13    3782.4
   20.23    3786.6
   20.32    3790.8
   20.52    3800.0
   21.05    3825.1
   21.58    3850.2
   22.57    3900.0
   22.82    3913.1
   23.06    3926.1
   23.74    3963.2
   24.38    4000.0
   24.69    4018.2
   24.99    4036.2
   25.58    4072.3
   25.71    4080.8
   25.85    4089.4
   26.01    4100.0
   26.77    4150.2
   27.49    4200.0
   27.64    4210.4
   27.78    4220.8
   28.32    4260.5
   28.84    4300.0
   29.29    4335.9
   29.73    4371.6
   29.82    4378.9
   30.08    4400.0
   30.54    4439.7
   30.60    4444.7
   31.05    4484.7
   31.22    4500.0
   31.48    4524.3
   31.69    4544.0
   31.90    4563.5
   32.27    4600.0
   32.30    4602.4
   32.49    4621.6
   32.68    4640.8
   33.05    4678.8
   33.25    4700.0
   33.41    4716.4
   33.75    4753.5
   33.93    4774.0
   34.12    4794.4
   34.16    4800.0
   34.47    4834.5
   34.63    4853.4
   34.79    4872.3
   35.02    4900.0
   35.09    4909.6
   35.26    4930.1
   35.43    4950.6
   35.74    4991.1
   35.81    5000.0
   36.03    5028.8
   36.31    5066.1
   36.50    5091.5
   36.56    5100.0
   36.59    5104.1
   36.63    5110.3
   36.65    5113.5
   36.66    5115.0
   36.68    5116.6
   36.89    5146.9
   37.10    5176.9
   37.26    5200.0
   37.39    5220.2
   37.52    5240.3
   37.72    5270.3
   37.91    5300.0
   38.06    5324.1
   38.14    5336.1
   38.21    5348.1
   38.29    5361.1
   38.37    5374.1
   38.45    5387.1
   38.53    5400.0
   38.58    5409.5
   38.61    5414.2
   38.64    5418.9
   38.67    5423.6
   38.69    5428.3
   38.72    5433.0
   38.73    5435.3
   38.74    5436.5
   38.75    5437.6
   38.81    5447.9
   38.85    5454.7
   38.98    5477.4
   39.11    5500.0
   39.16    5509.5
   39.21    5519.0
   39.32    5537.9
   39.35    5544.0
   39.38    5550.0
   39.45    5562.1
   39.55    5581.1
   39.65    5600.0
   39.77    5623.1
   39.91    5650.0
   40.02    5672.2
   40.07    5683.3
   40.13    5694.2
   40.15    5697.6
   40.16    5701.0
   40.24    5718.5
   40.32    5736.0
   40.34    5740.7
   40.36    5745.3
   40.42    5758.2
   40.45    5764.6
   40.48    5771.0
   40.55    5787.7
   40.62    5804.2
   40.66    5812.3
   40.69    5820.4
   40.70    5821.0
   40.75    5834.8
   40.81    5848.3
   40.84    5855.1
   40.86    5861.7
   40.90    5871.0
   40.98    5891.1
   41.04    5906.2
   41.10    5921.0
   41.12    5926.9
   41.14    5932.7
   41.15    5935.6
   41.22    5953.5
   41.25    5962.3
   41.28    5971.0
   41.33    5984.5
   41.39    6001.4
   41.44    6016.0
   41.52    6037.7
   41.59    6059.2
   41.59    6060.1
   41.59    6061.0
   41.66    6080.5
   41.70    6093.3
   41.74    6106.0
   41.76    6111.6
   41.78    6117.1
   41.81    6128.2
   41.82    6130.6
   41.83    6133.1
   41.86    6142.1
   41.87    6146.5
   41.88    6148.8
   41.89    6151.0
   41.94    6168.5
   41.99    6186.0
   42.04    6203.5
   42.09    6221.0
   42.14    6238.5
   42.17    6247.2
   42.19    6256.0
   42.21    6263.3
   42.22    6264.0
   42.25    6277.5
   42.29    6291.0
   42.32    6301.0
   42.35    6311.0
   42.36    6316.0
   42.38    6321.0
   42.39    6326.0
   42.41    6331.0
   42.42    6334.9
   42.43    6338.8
   42.44    6342.7
   42.44    6344.6
   42.45    6346.6
   42.45    6346.9
   42.46    6351.4
   42.47    6353.7
   42.47    6354.9
   42.47    6356.0
   42.49    6363.5
   42.49    6367.3
   42.50    6369.1
   42.50    6370.1
   42.50    6371.0
